Modulation Potential values downloaded from HVO:
 Starting from OULU station monthly rate: 
column 1 - Date in fraction of year.
column 2 - Modulation potential values [MV].

1980.001	715.040021550288
1980.086	734.042675920847
1980.165	695.917749375829
1980.250	744.116945291637
1980.332	742.733241369813
1980.416	828.417603894608
1980.498	828.137064473236
1980.583	818.020552517173
1980.668	819.968718885329
1980.750	877.409390794049
1980.834	929.176130245199
1980.916	934.044283385807
1981.001	834.324436912925
1981.086	880.333329822387
1981.163	895.316921609169
1981.248	927.928060129117
1981.330	968.602485478992
1981.415	880.398382482511
1981.497	870.322510820197
1981.582	866.842243691293
1981.667	823.595467993451
1981.749	921.033632113652
1981.834	907.614929984768
1981.916	845.878864494592
1982.001	784.475035847694
1982.086	889.440196806924
1982.163	791.815795374037
1982.248	769.143176189007
1982.330	742.070893179727
1982.415	889.6039906613
1982.497	1011.590817222
1982.582	1028.39542769805
1982.667	1107.58733975765
1982.749	1020.4373
1982.834	983.355389294324
1982.916	1040.86326935192
1983.001	954.581941678708
1983.086	881.016548072556
1983.163	818.885998190012
1983.248	815.5205999668
1983.330	904.529677192516
1983.415	847.3983237952
1983.497	790.156808981071
1983.582	787.928673420628
1983.667	767.5482945157
1983.749	752.953839790672
1983.834	738.851810186447
1983.916	738.019991833324
1984.001	713.389503508924
1984.086	724.7773912253
1984.165	767.046702236997
1984.250	798.355340786532
1984.332	866.070163602924
1984.416	810.015296524412
1984.498	792.963468407452
1984.583	752.633792167292
1984.668	740.258879950036
1984.750	740.230144352591
1984.834	749.119886036799
1984.916	736.558829346126
1985.001	728.348010989648
1985.086	686.938933848124
1985.163	679.152684174077
1985.248	667.655302011717
1985.330	657.806092044148
1985.415	627.331199908733
1985.497	637.531307826432
1985.582	636.763595957172
1985.667	603.159699387653
1985.749	586.452174077951
1985.834	559.432050268148
1985.916	576.985045161693
1986.001	584.233758956324
1986.086	631.969582600149
1986.163	590.429739633428
1986.248	540.925238539925
1986.330	533.977234805533
1986.415	530.512004835717
1986.497	528.155269586924
1986.582	525.287941463395
1986.667	518.568017165973
1986.749	507.002251397324
1986.834	540.168962475213
1986.916	502.121118698493
1987.001	473.983218488836
1987.086	466.978242281717
1987.163	464.072014276788
1987.248	470.661930101797
1987.330	484.531635900733
1987.415	522.262613678477
1987.497	539.546866174596
1987.582	560.556917825436
1987.667	580.055084155012
1987.749	578.518314101427
1987.834	596.851040851199
1987.916	593.246923492852
1988.001	666.116219605931
1988.086	639.094621923076
1988.165	628.697016754325
1988.250	641.998743832308
1988.332	635.434662099699
1988.416	646.051237848436
1988.498	694.739130906491
1988.583	693.179137889427
1988.668	695.616096480317
1988.750	706.400047363348
1988.834	717.114240687891
1988.916	793.567987472373
1989.001	832.164543387728
1989.086	841.993964702773
1989.163	991.192612858772
1989.248	959.159834423972
1989.330	1019.25245522864
1989.415	993.978913538317
1989.497	897.062052083036
1989.582	940.323726284772
1989.667	978.945402137253
1989.749	1046.76871662616
1989.834	1128.31415659439
1989.916	1071.46052195253
1990.001	1008.95029602665
1990.086	995.851102541299
1990.163	1036.93838645272
1990.248	1102.63277677521
1990.330	1115.29311393192
1990.415	1122.11619187949
1990.497	1032.00969054665
1990.582	1049.36376079173
1990.667	988.903965140076
1990.749	932.927147255972
1990.834	889.112671248125
1990.916	881.049091390272
1991.001	812.410991450972
1991.086	794.989912009551
1991.163	1007.98799250363
1991.248	979.609557861631
1991.330	961.333426118771
1991.415	1363.94029365371
1991.497	1334.34163980233
1991.582	1127.27965223145
1991.667	977.617988133773
1991.749	942.161992134276
1991.834	932.419656425807
1991.916	878.935499364076
1992.001	887.770682827347
1992.086	910.407770229199
1992.165	838.56172628
1992.250	752.575612462973
1992.332	776.260774517967
1992.416	710.319968933125
1992.498	675.526540125332
1992.583	689.604094973156
1992.668	705.152476531693
1992.750	660.251003957557
1992.834	676.975185452287
1992.916	636.584570499925
1993.001	646.646630654388
1993.086	644.861767329477
1993.163	680.634331899711
1993.248	638.889421446325
1993.330	623.298521942973
1993.415	609.943620169325
1993.497	605.217688567277
1993.582	601.888636248957
1993.667	585.449421683027
1993.749	584.329027157934
1993.834	574.233983877071
1993.916	579.416308411711
1994.001	575.173241503951
1994.086	617.114727815488
1994.163	614.724953012033
1994.248	622.921546007809
1994.330	595.687974223872
1994.415	593.078054994767
1994.497	580.055084155012
1994.582	559.799135192498
1994.667	548.225217516572
1994.749	561.108599275116
1994.834	563.920360077052
1994.916	569.115049751996
1995.001	550.866623915411
1995.086	543.825715896324
1995.163	555.750065464355
1995.248	545.909265626451
1995.330	538.792336937812
1995.415	537.662339216191
1995.497	536.004493307717
1995.582	532.812541774031
1995.667	537.573803097168
1995.749	547.774830327653
1995.834	545.258787568772
1995.916	527.806945660813
1996.001	525.157951434596
1996.086	516.345968103076
1996.165	497.470512113268
1996.250	489.893794243925
1996.332	489.873525955668
1996.416	488.012388469172
1996.498	487.084449911807
1996.583	494.802616443088
1996.668	496.524886508801
1996.750	506.855576232052
1996.834	509.375625992212
1996.916	505.370165560435
1997.001	490.096522703125
1997.086	483.730367736172
1997.163	481.414187828916
1997.248	486.741959847773
1997.330	481.533716778132
1997.415	484.471494797427
1997.497	485.394477932111
1997.582	474.591446903632
1997.667	476.243552161792
1997.749	488.274949767924
1997.834	505.140405241088
1997.916	495.048297040192
1998.001	492.352373506768
1998.086	488.780268958799
1998.163	486.621138179597
1998.248	540.813961393299
1998.330	582.830093058368
1998.415	571.938406130706
1998.497	543.669179605652
1998.582	575.126247133299
1998.667	544.429879089471
1998.749	524.746513151572
1998.834	542.396038439812
1998.916	560.465017322453
1999.001	595.058776977427
1999.086	595.518519858925
1999.163	589.397214979892
1999.248	569.720697968052
1999.330	578.329415142228
1999.415	558.950573241676
1999.497	542.128351788413
1999.582	597.627479295232
1999.667	648.954672018324
1999.749	674.107071246132
1999.834	684.687930073012
1999.916	725.796225861908
2000.001	696.576249187572
2000.086	720.769127284032
2000.165	759.580843682333
2000.250	749.757875643251
2000.332	809.892576275557
2000.416	866.938787263312
2000.498	922.611229016924
2000.583	875.625843471291
2000.668	842.088569196352
2000.750	783.036759297773
2000.834	854.418799340933
2000.916	829.041265144128
2001.001	790.910582955397
2001.086	721.670939579199
2001.163	691.649135070132
2001.248	832.258369763933
2001.330	757.357356216356
2001.415	736.1581029613
2001.497	721.840123852468
2001.582	771.036535363152
2001.667	771.036535363152
2001.749	814.2880608692
2001.834	772.221608472271
2001.916	746.629774991028
2002.001	832.790193435647
2002.086	745.098224063333
2002.163	776.826289985037
2002.248	775.190091907072
2002.330	770.089431499087
2002.415	745.820363713107
2002.497	795.141288303916
2002.582	859.718715295236
2002.667	809.585833660038
2002.749	786.696119460476
2002.834	836.394113731013
2002.916	821.951176227792
2003.001	794.596430598124
2003.086	795.625831661772
2003.163	777.153830406387
2003.248	788.650814781172
2003.330	813.703069265132
2003.415	875.852701187392
2003.497	825.1177331037
2003.582	799.844228887632
2003.667	774.625442395973
2003.749	819.009686320756
2003.834	999.7442068212
2003.916	799.35784257659
2004.001	822.509353910868
2004.086	739.167509799326
2004.165	683.442844464127
2004.250	655.420696473317
2004.332	629.558215193293
2004.416	630.699509610447
2004.498	668.0006511872
2004.583	651.816377161324
2004.668	634.898612445132
2004.750	576.490429635792
2004.834	642.565378666831
2004.916	622.896420908124
2005.001	721.9529299413
2005.086	643.055067880237
2005.163	624.078196381172
2005.248	601.766536724371
2005.330	661.410234075052
2005.415	612.417141402325
2005.497	629.431508285747
2005.582	651.660025609734
2005.667	727.922247343733
2005.749	601.278345792532
2005.834	571.985175104207
2005.916	571.517634529087
2006.001	562.881799527247
2006.086	534.901852283318
2006.163	508.345164208973
2006.248	505.119522911324
2006.330	495.642517791796
2006.415	496.833050019324
2006.497	502.827525643325
2006.582	501.85127508293
2006.667	503.1394803008
2006.749	485.113384400373
2006.834	491.2130104692
2006.916	520.176018814548
2007.001	474.768178506517
2007.086	483.610291867396
2007.163	471.207318448124
2007.248	451.516530118612
2007.330	451.460632613892
2007.415	450.214198230272
2007.497	453.253051929924
2007.582	455.937170528371
2007.667	451.125404203452
2007.749	449.712955354325
2007.834	452.654730270596
2007.916	445.228953858932
2008.001	453.028581867757
2008.086	458.108020703316
2008.165	457.824244833171
2008.250	454.865246040653
2008.332	457.635164502991
2008.416	456.653282595647
2008.498	451.367486679346
2008.583	450.251351363507
2008.668	443.251770840788
2008.750	437.360221547611
2008.834	429.75267615221
2008.916	430.211579220992
2009.001	425.682649085299
2009.086	426.101618017747
2009.163	413.790795356236
2009.248	402.476241980925
2009.330	400.963211389812
2009.415	404.258701694288
2009.497	407.256862734707
2009.582	406.9921876693
2009.667	402.982178207348
2009.749	397.717597609773
2009.834	398.844111432893
2009.916	396.291178975231
2010.001	405.211179725331
2010.086	431.786680423917
2010.163	450.530105517691
2010.248	467.964084437312
2010.330	458.600340557212
2010.415	464.878472269633
2010.497	468.428755956992
2010.582	475.259451808692
2010.667	475.259451808692
2010.749	466.823795940132
2010.834	476.223849852412
2010.916	489.995148115199
2011.001	481.513793214931
2011.086	491.395947123092
2011.163	498.665321914687
2011.248	542.998769698112
2011.330	516.026219841871
2011.415	578.140569217652
2011.497	556.959775776308
2011.582	551.025016417924
2011.667	553.814824146751
2011.749	567.138955200592
2011.834	537.861593960956
2011.916	506.352998214868
2012.001	539.236061652093
2012.086	566.790854132197
2012.165	631.613753339198
2012.250	549.036749751956
2012.332	541.637902848597
2012.416	574.867837344333
2012.498	650.852684499792
2012.583	637.147358666877
2012.668	598.574910936972
2012.750	601.131953148927
2012.834	590.862414193471
2012.916	573.7179573325
2013.001	566.814055069426
2013.086	564.752416711925
2013.163	586.308834239891
2013.248	583.044025135325
2013.330	656.861598691732
2013.415	660.198349798125
2013.497	651.165109171198
2013.582	635.000688966596
2013.667	618.637198622325
2013.749	590.597970058693
2013.834	602.964005367252
2013.916	625.413032773125
2014.001	613.508115958732
2014.086	661.9113066733
2014.163	643.235555104307
2014.248	630.623371110012
2014.330	609.721409719028
2014.415	645.482141875893
2014.497	627.685068545924
2014.582	602.670563776572
2014.667	631.334287147171
2014.749	630.217425064925
2014.834	638.222886167252
2014.916	693.726197253908
2015.001	670.528607756925
2015.086	664.685786700325
2015.163	701.392239461597
2015.248	676.626216663716
2015.330	644.784254072149
2015.415	651.868500974516
2015.497	620.688657192076
2015.582	616.915288224768
2015.667	616.267475825299
2015.749	610.338826703052
2015.834	600.059318628432
2015.916	584.495778414387
2016.001	545.640017768307
2016.086	525.721457012556
2016.165	529.725352468316
2016.250	525.266274386931
2016.332	523.168506619325
2016.416	511.992213470291
2016.498	522.542852909007
2016.583	506.4785979712
2016.668	504.848128033012
2016.750	486.782240366491
2016.834	473.238734555052
2016.916	474.316664492148
2017.001	461.794988169676
2017.086	456.464716038388
2017.163	450.604471448117
2017.248	462.635546490213
2017.330	457.540655412877
2017.415	452.169218736558
2017.497	472.358656377748
2017.582	495.4990213893
2017.667	510.091809538511
2017.749	485.796321866751
2017.834	462.578184732672
2017.916	458.070173147973
2018.001	457.219479467027
2018.086	450.864856616516
2018.163	448.305292880013
2018.248	443.653746426448
2018.330	446.736603680846
2018.415	434.509779765299
2018.497	436.210354767325
2018.582	436.174476122396
2018.667	433.190302991167
2018.749	430.052664765773
2018.834	433.813814279251
2018.916	437.306245719347
2019.001	436.856737183572
2019.086	439.941719805952
2019.163	426.853464381757
2019.248	427.308812473396
2019.330	444.532176226767
2019.415	431.042556344925
2019.497	431.024856921266
2019.582	432.763339089151
2019.667	425.229304708047
2019.749	421.364011525494
2019.834	425.055090645907
2019.916	424.028914428925
2020.001	418.496360435187
2020.086	409.831884327013
2020.165	412.460427692052
2020.250	404.324300338431
2020.332	410.533060304558
2020.416	417.147859072925
